# FILE      =  I3-24-08-07T091951.hot
# NOTEA     = PI3-Cone West
# NOTEB     = Spectral Integration AIRSPY-mini Test
# OBSERVER  = Science Aficionado
# DEVICE    = airspy,bias=1
# DATADIR   = ../data/
# SITE      = PI3-Cone West
# CITY      = Green Bank
# REGION    = West Virginia
# COUNTRY   = US
# TELTYPE   = Bubble Wrap  Horn
# FRAME     = TOPO
# GAIN1     = 20.0
# GAIN2     = 0.0
# GAIN3     = 0.0
# GAIN4     = 0.0
# Count     = 118336
# REFFREQ   = 1420405751.7680001
# OBSFREQ   = 1421500000.0
# OBSBW     = 6000000.0
# Duration  = 116443.2622499999
# DeltaX    = 5859.375
# TSYS      = 200.0
# TRX       = 100.0
# TRMS      = 2.0
# TINT      = 1.0
# KPERC     = 100.0
# GAINFACT  = 1.0
# BUNIT     = Counts
# NCHAN     = 2048
# NSPEC     = 1
# NTIME     = 0
# NSAMPLES  = 0
# EPEAK     = 4.10875183718
# ERMS      = 0.995973393526
# EMJD      = 58568.808999981004 
# REFCHAN   = 1024.0
# REFSAMPL  = 256.0
# NAVE      = 344
# NMEDIAN   = 1024
# Fft_rate  = 5000
# UTC       = 2024-08-07 09:19:51.448033
# SECONDS   =       0.0000000000 
# LST       = 01:06:04.060
# AZ        = 0.0
# EL        = -70.0
# TELLON    = -79:50:22.920
# TELLAT    = +38:25:59.160
# TELALT    = 0.0
# RA        = 13:03:27.620
# DEC       = -18:10:10.300
# GALLON    = 306:56:40.80
# GALLAT    = +44:36:30.70
# ALT_SUN   = -12:32:41.9
# AZ_SUN    = +57:10:43.5
# ETAA      = 0.8
# ETAB      = 0.99
# POLANGLE  = 0.0
# TELSIZEAM = 1.0
# TELSIZEBM = 1.0
# AST_VERS  = 5.0.1
# N  Frequency  Intensity 
#       (Hz)    (Counts) 
0000 1418500000 7.5216
0001 1418502929 10.1359
0002 1418505859 10.4259
0003 1418508789 10.6980
0004 1418511718 10.9383
0005 1418514648 11.2777
0006 1418517578 11.5819
0007 1418520507 11.8608
0008 1418523437 12.2867
0009 1418526367 12.6025
0010 1418529296 12.9676
0011 1418532226 13.4345
0012 1418535156 13.8006
0013 1418538085 14.2680
0014 1418541015 14.7719
0015 1418543945 15.2405
0016 1418546875 15.7864
0017 1418549804 16.3433
0018 1418552734 16.9225
0019 1418555664 17.5533
0020 1418558593 18.2068
0021 1418561523 18.8897
0022 1418564453 19.6133
0023 1418567382 20.3729
0024 1418570312 21.1628
0025 1418573242 21.9953
0026 1418576171 22.8643
0027 1418579101 23.7789
0028 1418582031 24.7173
0029 1418584960 25.7428
0030 1418587890 26.9750
0031 1418590820 27.8983
0032 1418593750 28.9630
0033 1418596679 30.1496
0034 1418599609 31.3293
0035 1418602539 32.6001
0036 1418605468 33.8850
0037 1418608398 35.2242
0038 1418611328 36.6533
0039 1418614257 38.1270
0040 1418617187 39.6417
0041 1418620117 41.2347
0042 1418623046 42.8658
0043 1418625976 44.5552
0044 1418628906 46.3087
0045 1418631835 48.1469
0046 1418634765 50.0515
0047 1418637695 51.9559
0048 1418640625 53.9404
0049 1418643554 55.9888
0050 1418646484 58.1162
0051 1418649414 60.3209
0052 1418652343 62.6262
0053 1418655273 65.0483
0054 1418658203 67.6927
0055 1418661132 70.2937
0056 1418664062 72.6397
0057 1418666992 75.1131
0058 1418669921 77.6157
0059 1418672851 80.2878
0060 1418675781 83.1397
0061 1418678710 85.9962
0062 1418681640 89.0634
0063 1418684570 92.2269
0064 1418687500 95.0473
0065 1418690429 98.1982
0066 1418693359 101.4427
0067 1418696289 104.7207
0068 1418699218 108.1066
0069 1418702148 111.5747
0070 1418705078 115.0710
0071 1418708007 118.6439
0072 1418710937 122.3275
0073 1418713867 126.0950
0074 1418716796 129.9212
0075 1418719726 133.7715
0076 1418722656 137.7761
0077 1418725585 141.7718
0078 1418728515 145.8554
0079 1418731445 149.9825
0080 1418734375 154.2065
0081 1418737304 158.4117
0082 1418740234 162.7631
0083 1418743164 167.1637
0084 1418746093 171.6416
0085 1418749023 176.1992
0086 1418751953 180.7711
0087 1418754882 185.4877
0088 1418757812 190.1444
0089 1418760742 194.8959
0090 1418763671 199.5206
0091 1418766601 204.3956
0092 1418769531 209.2867
0093 1418772460 214.2337
0094 1418775390 219.2024
0095 1418778320 224.2857
0096 1418781250 229.3636
0097 1418784179 234.4825
0098 1418787109 239.7388
0099 1418790039 244.8918
0100 1418792968 250.0508
0101 1418795898 255.2445
0102 1418798828 260.4735
0103 1418801757 265.8192
0104 1418804687 271.1807
0105 1418807617 276.5796
0106 1418810546 282.0106
0107 1418813476 287.4246
0108 1418816406 292.8555
0109 1418819335 298.3082
0110 1418822265 303.7174
0111 1418825195 309.2446
0112 1418828125 314.7435
0113 1418831054 320.1514
0114 1418833984 325.7218
0115 1418836914 331.2785
0116 1418839843 336.8628
0117 1418842773 342.4574
0118 1418845703 347.8026
0119 1418848632 353.4266
0120 1418851562 359.1498
0121 1418854492 364.7878
0122 1418857421 370.1457
0123 1418860351 375.6808
0124 1418863281 381.0530
0125 1418866210 386.7794
0126 1418869140 392.2178
0127 1418872070 397.9238
0128 1418875000 403.3778
0129 1418877929 408.8615
0130 1418880859 414.5939
0131 1418883789 420.2966
0132 1418886718 425.8453
0133 1418889648 431.1215
0134 1418892578 436.4904
0135 1418895507 441.8550
0136 1418898437 447.4175
0137 1418901367 453.0907
0138 1418904296 458.4114
0139 1418907226 463.9667
0140 1418910156 469.3868
0141 1418913085 474.8161
0142 1418916015 480.5567
0143 1418918945 485.8941
0144 1418921875 491.1969
0145 1418924804 496.5017
0146 1418927734 502.1464
0147 1418930664 507.4955
0148 1418933593 513.1358
0149 1418936523 518.6044
0150 1418939453 523.9029
0151 1418942382 529.2779
0152 1418945312 534.6861
0153 1418948242 540.1372
0154 1418951171 545.6827
0155 1418954101 550.8701
0156 1418957031 556.3335
0157 1418959960 561.8050
0158 1418962890 567.2830
0159 1418965820 572.8176
0160 1418968750 578.4351
0161 1418971679 583.8889
0162 1418974609 589.3724
0163 1418977539 594.9508
0164 1418980468 600.6168
0165 1418983398 605.9781
0166 1418986328 611.6914
0167 1418989257 618.0799
0168 1418992187 625.6699
0169 1418995117 632.0010
0170 1418998046 636.5114
0171 1419000976 640.9077
0172 1419003906 645.6670
0173 1419006835 651.6228
0174 1419009765 657.4688
0175 1419012695 662.7678
0176 1419015625 668.3912
0177 1419018554 674.1197
0178 1419021484 679.6854
0179 1419024414 685.6067
0180 1419027343 691.7574
0181 1419030273 697.4069
0182 1419033203 703.6387
0183 1419036132 709.3848
0184 1419039062 715.2554
0185 1419041992 721.2957
0186 1419044921 727.4337
0187 1419047851 733.4226
0188 1419050781 739.4070
0189 1419053710 745.3688
0190 1419056640 751.7028
0191 1419059570 758.1226
0192 1419062500 764.3029
0193 1419065429 770.4346
0194 1419068359 776.2964
0195 1419071289 782.7431
0196 1419074218 789.0192
0197 1419077148 795.3297
0198 1419080078 801.4047
0199 1419083007 807.7569
0200 1419085937 814.0827
0201 1419088867 820.5603
0202 1419091796 826.9722
0203 1419094726 833.4740
0204 1419097656 839.7672
0205 1419100585 846.2628
0206 1419103515 852.8776
0207 1419106445 859.2294
0208 1419109375 865.4040
0209 1419112304 871.6400
0210 1419115234 877.9730
0211 1419118164 884.4218
0212 1419121093 891.0541
0213 1419124023 897.4457
0214 1419126953 903.8671
0215 1419129882 910.5459
0216 1419132812 916.6338
0217 1419135742 923.1031
0218 1419138671 929.4372
0219 1419141601 935.5628
0220 1419144531 941.6848
0221 1419147460 948.0552
0222 1419150390 954.5004
0223 1419153320 960.7137
0224 1419156250 966.8510
0225 1419159179 973.3876
0226 1419162109 979.8060
0227 1419165039 985.6542
0228 1419167968 991.6639
0229 1419170898 997.6201
0230 1419173828 1003.4206
0231 1419176757 1009.5149
0232 1419179687 1015.2938
0233 1419182617 1021.1944
0234 1419185546 1027.1912
0235 1419188476 1033.0854
0236 1419191406 1038.8458
0237 1419194335 1044.1318
0238 1419197265 1049.8924
0239 1419200195 1055.8203
0240 1419203125 1061.0111
0241 1419206054 1066.2271
0242 1419208984 1071.5913
0243 1419211914 1077.0858
0244 1419214843 1082.1566
0245 1419217773 1087.5530
0246 1419220703 1092.8626
0247 1419223632 1098.0584
0248 1419226562 1103.0098
0249 1419229492 1108.2270
0250 1419232421 1112.9659
0251 1419235351 1117.5702
0252 1419238281 1121.9409
0253 1419241210 1126.7120
0254 1419244140 1131.2028
0255 1419247070 1135.7734
0256 1419250000 1140.5544
0257 1419252929 1144.8287
0258 1419255859 1149.1716
0259 1419258789 1153.3250
0260 1419261718 1157.1192
0261 1419264648 1161.6295
0262 1419267578 1165.3794
0263 1419270507 1169.1608
0264 1419273437 1172.9917
0265 1419276367 1176.6664
0266 1419279296 1180.0950
0267 1419282226 1184.0717
0268 1419285156 1187.8299
0269 1419288085 1191.1073
0270 1419291015 1194.6236
0271 1419293945 1197.8968
0272 1419296875 1201.1343
0273 1419299804 1203.9403
0274 1419302734 1206.7271
0275 1419305664 1209.9699
0276 1419308593 1212.7322
0277 1419311523 1215.8129
0278 1419314453 1218.7617
0279 1419317382 1221.5621
0280 1419320312 1224.0413
0281 1419323242 1228.3626
0282 1419326171 1232.1699
0283 1419329101 1234.1875
0284 1419332031 1236.3286
0285 1419334960 1237.0729
0286 1419337890 1238.2297
0287 1419340820 1240.1342
0288 1419343750 1242.0707
0289 1419346679 1244.3162
0290 1419349609 1246.2334
0291 1419352539 1248.1561
0292 1419355468 1250.3284
0293 1419358398 1252.2039
0294 1419361328 1253.6758
0295 1419364257 1255.0986
0296 1419367187 1256.3997
0297 1419370117 1257.9114
0298 1419373046 1259.9269
0299 1419375976 1261.0077
0300 1419378906 1261.8424
0301 1419381835 1263.4357
0302 1419384765 1264.7632
0303 1419387695 1266.3421
0304 1419390625 1267.4619
0305 1419393554 1267.8453
0306 1419396484 1268.7526
0307 1419399414 1269.6700
0308 1419402343 1270.9782
0309 1419405273 1271.9235
0310 1419408203 1272.8217
0311 1419411132 1273.2964
0312 1419414062 1274.1724
0313 1419416992 1275.4006
0314 1419419921 1276.3301
0315 1419422851 1276.5725
0316 1419425781 1276.6984
0317 1419428710 1277.1888
0318 1419431640 1277.6612
0319 1419434570 1278.3677
0320 1419437500 1278.6935
0321 1419440429 1279.1067
0322 1419443359 1279.5357
0323 1419446289 1280.0354
0324 1419449218 1280.2317
0325 1419452148 1280.6470
0326 1419455078 1281.1095
0327 1419458007 1280.8871
0328 1419460937 1280.7955
0329 1419463867 1281.3732
0330 1419466796 1281.5634
0331 1419469726 1281.4268
0332 1419472656 1281.4776
0333 1419475585 1281.3080
0334 1419478515 1281.7418
0335 1419481445 1282.2699
0336 1419484375 1282.0326
0337 1419487304 1281.8366
0338 1419490234 1281.6744
0339 1419493164 1281.6411
0340 1419496093 1281.3334
0341 1419499023 1281.6232
0342 1419501953 1281.2170
0343 1419504882 1280.9896
0344 1419507812 1280.9277
0345 1419510742 1281.0590
0346 1419513671 1281.5727
0347 1419516601 1281.0089
0348 1419519531 1280.1013
0349 1419522460 1279.8083
0350 1419525390 1279.8865
0351 1419528320 1279.6646
0352 1419531250 1279.0885
0353 1419534179 1279.1254
0354 1419537109 1279.0272
0355 1419540039 1278.7284
0356 1419542968 1278.4736
0357 1419545898 1278.5406
0358 1419548828 1278.0041
0359 1419551757 1277.1825
0360 1419554687 1276.8732
0361 1419557617 1276.6036
0362 1419560546 1276.2433
0363 1419563476 1275.9339
0364 1419566406 1275.7143
0365 1419569335 1275.3675
0366 1419572265 1275.4723
0367 1419575195 1274.7772
0368 1419578125 1274.5765
0369 1419581054 1273.7352
0370 1419583984 1273.4539
0371 1419586914 1272.7883
0372 1419589843 1272.4922
0373 1419592773 1272.1123
0374 1419595703 1271.8275
0375 1419598632 1271.7238
0376 1419601562 1271.3912
0377 1419604492 1271.0517
0378 1419607421 1270.6886
0379 1419610351 1270.3075
0380 1419613281 1269.5185
0381 1419616210 1268.7755
0382 1419619140 1268.3687
0383 1419622070 1268.0869
0384 1419625000 1267.5151
0385 1419627929 1267.4301
0386 1419630859 1267.4644
0387 1419633789 1266.9245
0388 1419636718 1266.4281
0389 1419639648 1266.2468
0390 1419642578 1265.6900
0391 1419645507 1265.1047
0392 1419648437 1264.6142
0393 1419651367 1264.2080
0394 1419654296 1264.1409
0395 1419657226 1265.2871
0396 1419660156 1265.8213
0397 1419663085 1266.0190
0398 1419666015 1264.6076
0399 1419668945 1262.9125
0400 1419671875 1262.5790
0401 1419674804 1261.7315
0402 1419677734 1260.8780
0403 1419680664 1260.3703
0404 1419683593 1260.1590
0405 1419686523 1260.0833
0406 1419689453 1259.5149
0407 1419692382 1259.3446
0408 1419695312 1258.8763
0409 1419698242 1258.4009
0410 1419701171 1258.5087
0411 1419704101 1258.2492
0412 1419707031 1257.7482
0413 1419709960 1257.0456
0414 1419712890 1256.8114
0415 1419715820 1256.5145
0416 1419718750 1256.6626
0417 1419721679 1256.3072
0418 1419724609 1255.9843
0419 1419727539 1255.6667
0420 1419730468 1255.2910
0421 1419733398 1254.9205
0422 1419736328 1254.8254
0423 1419739257 1254.1435
0424 1419742187 1253.8065
0425 1419745117 1253.7306
0426 1419748046 1253.6488
0427 1419750976 1253.4537
0428 1419753906 1252.7757
0429 1419756835 1252.8307
0430 1419759765 1253.0117
0431 1419762695 1252.5484
0432 1419765625 1252.3499
0433 1419768554 1251.8451
0434 1419771484 1251.7198
0435 1419774414 1251.2424
0436 1419777343 1251.0421
0437 1419780273 1250.8124
0438 1419783203 1250.8553
0439 1419786132 1250.6761
0440 1419789062 1250.4005
0441 1419791992 1250.3904
0442 1419794921 1250.3451
0443 1419797851 1250.1254
0444 1419800781 1249.5355
0445 1419803710 1249.4813
0446 1419806640 1249.0262
0447 1419809570 1248.9585
0448 1419812500 1249.1325
0449 1419815429 1249.1102
0450 1419818359 1248.8503
0451 1419821289 1248.8230
0452 1419824218 1248.8171
0453 1419827148 1249.0285
0454 1419830078 1248.3730
0455 1419833007 1248.0662
0456 1419835937 1247.9348
0457 1419838867 1248.0725
0458 1419841796 1247.5445
0459 1419844726 1247.8647
0460 1419847656 1247.8737
0461 1419850585 1247.8782
0462 1419853515 1247.5675
0463 1419856445 1247.6894
0464 1419859375 1247.7624
0465 1419862304 1247.3015
0466 1419865234 1247.1996
0467 1419868164 1246.9905
0468 1419871093 1247.0283
0469 1419874023 1246.9625
0470 1419876953 1247.0817
0471 1419879882 1247.0083
0472 1419882812 1247.0676
0473 1419885742 1246.9869
0474 1419888671 1246.8984
0475 1419891601 1246.7374
0476 1419894531 1246.7214
0477 1419897460 1246.5934
0478 1419900390 1246.6929
0479 1419903320 1246.7295
0480 1419906250 1246.9570
0481 1419909179 1246.7653
0482 1419912109 1246.7841
0483 1419915039 1246.7628
0484 1419917968 1246.7052
0485 1419920898 1247.0776
0486 1419923828 1247.1494
0487 1419926757 1246.9713
0488 1419929687 1246.5974
0489 1419932617 1246.4818
0490 1419935546 1246.6851
0491 1419938476 1246.9886
0492 1419941406 1246.9258
0493 1419944335 1247.0428
0494 1419947265 1246.8701
0495 1419950195 1247.6524
0496 1419953125 1247.6838
0497 1419956054 1247.3623
0498 1419958984 1247.1749
0499 1419961914 1246.7095
0500 1419964843 1247.0979
0501 1419967773 1246.9702
0502 1419970703 1247.4715
0503 1419973632 1247.3453
0504 1419976562 1247.3426
0505 1419979492 1247.7069
0506 1419982421 1247.8911
0507 1419985351 1248.3869
0508 1419988281 1248.7676
0509 1419991210 1249.3397
0510 1419994140 1250.2380
0511 1419997070 1250.6537
0512 1420000000 1249.6378
0513 1420002929 1248.9279
0514 1420005859 1248.6453
0515 1420008789 1248.6635
0516 1420011718 1249.0911
0517 1420014648 1249.4425
0518 1420017578 1249.2648
0519 1420020507 1248.9628
0520 1420023437 1248.7571
0521 1420026367 1249.1337
0522 1420029296 1249.3681
0523 1420032226 1249.2894
0524 1420035156 1249.2355
0525 1420038085 1249.5811
0526 1420041015 1250.0399
0527 1420043945 1250.3050
0528 1420046875 1250.0824
0529 1420049804 1250.5830
0530 1420052734 1250.2517
0531 1420055664 1250.5252
0532 1420058593 1250.6608
0533 1420061523 1250.9703
0534 1420064453 1251.3396
0535 1420067382 1251.3217
0536 1420070312 1251.6495
0537 1420073242 1251.7535
0538 1420076171 1252.0976
0539 1420079101 1252.5587
0540 1420082031 1252.0086
0541 1420084960 1252.0053
0542 1420087890 1252.1629
0543 1420090820 1252.4589
0544 1420093750 1252.6324
0545 1420096679 1252.7172
0546 1420099609 1252.9898
0547 1420102539 1253.4128
0548 1420105468 1253.4262
0549 1420108398 1253.6910
0550 1420111328 1253.6496
0551 1420114257 1253.9378
0552 1420117187 1253.9410
0553 1420120117 1253.8948
0554 1420123046 1254.1148
0555 1420125976 1254.6333
0556 1420128906 1254.9610
0557 1420131835 1255.0878
0558 1420134765 1255.1204
0559 1420137695 1255.4098
0560 1420140625 1255.8804
0561 1420143554 1255.5397
0562 1420146484 1255.6470
0563 1420149414 1255.9103
0564 1420152343 1256.2220
0565 1420155273 1256.1913
0566 1420158203 1256.6900
0567 1420161132 1256.8459
0568 1420164062 1257.0075
0569 1420166992 1257.0465
0570 1420169921 1257.7840
0571 1420172851 1257.9912
0572 1420175781 1258.1885
0573 1420178710 1257.9544
0574 1420181640 1258.0544
0575 1420184570 1258.3676
0576 1420187500 1258.5788
0577 1420190429 1258.7529
0578 1420193359 1259.2111
0579 1420196289 1259.3294
0580 1420199218 1259.5372
0581 1420202148 1259.4719
0582 1420205078 1260.1662
0583 1420208007 1260.5756
0584 1420210937 1260.2578
0585 1420213867 1260.1455
0586 1420216796 1260.3282
0587 1420219726 1260.9432
0588 1420222656 1260.8294
0589 1420225585 1261.3897
0590 1420228515 1261.5750
0591 1420231445 1261.4820
0592 1420234375 1261.8074
0593 1420237304 1262.3143
0594 1420240234 1262.2025
0595 1420243164 1262.1950
0596 1420246093 1262.2577
0597 1420249023 1262.5381
0598 1420251953 1262.8995
0599 1420254882 1263.3827
0600 1420257812 1264.0032
0601 1420260742 1263.5633
0602 1420263671 1263.9112
0603 1420266601 1264.2036
0604 1420269531 1264.5780
0605 1420272460 1264.2503
0606 1420275390 1264.0285
0607 1420278320 1264.2817
0608 1420281250 1264.4130
0609 1420284179 1264.6670
0610 1420287109 1265.0030
0611 1420290039 1265.4058
0612 1420292968 1265.2268
0613 1420295898 1265.4521
0614 1420298828 1266.2410
0615 1420301757 1265.8714
0616 1420304687 1265.7693
0617 1420307617 1266.0984
0618 1420310546 1266.2056
0619 1420313476 1266.1566
0620 1420316406 1266.7118
0621 1420319335 1266.9512
0622 1420322265 1267.4636
0623 1420325195 1268.2499
0624 1420328125 1270.1181
0625 1420331054 1270.2909
0626 1420333984 1268.1997
0627 1420336914 1267.7879
0628 1420339843 1267.7081
0629 1420342773 1267.6671
0630 1420345703 1267.8119
0631 1420348632 1268.2191
0632 1420351562 1268.4899
0633 1420354492 1268.6152
0634 1420357421 1268.7450
0635 1420360351 1268.9865
0636 1420363281 1268.9140
0637 1420366210 1268.5312
0638 1420369140 1268.8227
0639 1420372070 1268.9129
0640 1420375000 1269.4581
0641 1420377929 1269.7407
0642 1420380859 1269.7909
0643 1420383789 1269.8879
0644 1420386718 1269.8913
0645 1420389648 1269.9401
0646 1420392578 1270.3247
0647 1420395507 1270.4836
0648 1420398437 1270.3256
0649 1420401367 1270.2605
0650 1420404296 1270.3538
0651 1420407226 1270.5713
0652 1420410156 1270.7611
0653 1420413085 1270.7419
0654 1420416015 1271.0284
0655 1420418945 1271.3984
0656 1420421875 1271.4978
0657 1420424804 1272.1833
0658 1420427734 1271.9450
0659 1420430664 1271.6549
0660 1420433593 1271.5761
0661 1420436523 1271.7808
0662 1420439453 1271.7164
0663 1420442382 1272.3800
0664 1420445312 1272.3099
0665 1420448242 1272.4974
0666 1420451171 1272.6436
0667 1420454101 1272.3621
0668 1420457031 1273.0304
0669 1420459960 1273.0590
0670 1420462890 1272.7195
0671 1420465820 1272.7149
0672 1420468750 1272.9454
0673 1420471679 1273.6023
0674 1420474609 1273.6847
0675 1420477539 1273.7984
0676 1420480468 1274.1156
0677 1420483398 1274.4835
0678 1420486328 1275.0055
0679 1420489257 1275.0412
0680 1420492187 1274.7359
0681 1420495117 1274.9960
0682 1420498046 1275.2730
0683 1420500976 1275.5239
0684 1420503906 1275.8188
0685 1420506835 1275.7025
0686 1420509765 1275.7654
0687 1420512695 1276.1338
0688 1420515625 1276.5060
0689 1420518554 1276.3664
0690 1420521484 1276.2596
0691 1420524414 1275.9858
0692 1420527343 1276.1759
0693 1420530273 1276.2645
0694 1420533203 1276.0331
0695 1420536132 1276.4748
0696 1420539062 1276.3779
0697 1420541992 1276.0940
0698 1420544921 1276.1277
0699 1420547851 1276.3703
0700 1420550781 1276.1702
0701 1420553710 1275.5513
0702 1420556640 1275.5817
0703 1420559570 1275.5206
0704 1420562500 1276.0528
0705 1420565429 1275.3481
0706 1420568359 1275.1739
0707 1420571289 1275.0177
0708 1420574218 1275.0065
0709 1420577148 1274.7045
0710 1420580078 1274.5950
0711 1420583007 1275.0331
0712 1420585937 1274.2422
0713 1420588867 1273.8159
0714 1420591796 1273.7203
0715 1420594726 1273.5082
0716 1420597656 1273.4617
0717 1420600585 1273.4179
0718 1420603515 1273.2840
0719 1420606445 1273.0616
0720 1420609375 1273.2541
0721 1420612304 1273.4749
